Wavelength	As-cast	Co-facial	End-on
1100.05554	0.07784	0.08894	0.09484
1099.46741	0.08603	0.11109	0.08913
1098.99683	0.07714	0.10775	0.10025
1098.526	0.08063	0.09254	0.10373
1098.05505	0.09247	0.10063	0.10658
1097.46619	0.07275	0.10592	0.1034
1096.99487	0.10503	0.09942	0.11017
1096.52332	0.07652	0.09093	0.12056
1096.05164	0.08516	0.08422	0.09802
1095.46179	0.0819	0.0925	0.10375
1094.98975	0.08212	0.11636	0.11317
1094.51758	0.08949	0.08459	0.09981
1094.04517	0.08068	0.10597	0.09792
1093.45447	0.0806	0.09799	0.11234
1092.98169	0.10128	0.10461	0.09709
1092.50879	0.08226	0.09456	0.10907
1092.03565	0.08743	0.09871	0.11058
1091.44397	0.08292	0.0848	0.10169
1090.97046	0.08904	0.09053	0.11089
1090.49683	0.08879	0.09695	0.09768
1090.02307	0.07813	0.09712	0.09577
1089.54907	0.09088	0.09583	0.1033
1088.9563	0.10221	0.09953	0.10121
1088.48193	0.08594	0.09621	0.10689
1088.00745	0.08497	0.1	0.11255
1087.53272	0.08856	0.09212	0.09455
1087.05786	0.09957	0.096	0.11197
1086.46399	0.09231	0.10477	0.11197
1085.98877	0.07823	0.08863	0.11606
1085.51343	0.08168	0.09444	0.10922
1085.03784	0.08431	0.10305	0.1104
1084.44312	0.08369	0.0963	0.10371
1083.96716	0.09092	0.09976	0.11191
1083.49097	0.07714	0.09154	0.09537
1083.01477	0.09284	0.0927	0.10572
1082.53821	0.07922	0.10209	0.11407
1081.94251	0.08874	0.09603	0.10175
1081.46558	0.09123	0.09784	0.11042
1080.98865	0.09892	0.09861	0.09987
1080.51148	0.09222	0.10006	0.11546
1080.03406	0.0931	0.1041	0.10326
1079.55664	0.09121	0.1093	0.11114
1078.95947	0.09222	0.10818	0.10959
1078.48169	0.09222	0.10318	0.1135
1078.00354	0.09613	0.09876	0.12128
1077.52539	0.09601	0.10251	0.11461
1077.047	0.09454	0.09078	0.11298
1076.44885	0.09634	0.09663	0.11562
1075.97009	0.09636	0.10015	0.12412
1075.49121	0.09122	0.10948	0.11639
1075.01209	0.09554	0.10351	0.1164
1074.53284	0.09866	0.09298	0.10786
1074.05347	0.08715	0.09086	0.11224
1073.45398	0.09831	0.09982	0.12142
1072.97412	0.09432	0.09892	0.12525
1072.49426	0.09524	0.09544	0.11157
1072.01416	0.08418	0.10617	0.12041
1071.53381	0.08585	0.0968	0.11404
1071.05335	0.08776	0.0931	0.1122
1070.45264	0.09551	0.10547	0.10943
1069.9718	0.09476	0.09531	0.11653
1069.49085	0.10186	0.10004	0.11204
1069.00964	0.0956	0.09869	0.11476
1068.52832	0.09694	0.09738	0.11681
1068.04688	0.10132	0.1018	0.11676
1067.44482	0.09638	0.10306	0.11514
1066.96301	0.09586	0.1018	0.1191
1066.48096	0.09453	0.10452	0.12022
1065.99878	0.09338	0.09895	0.1117
1065.51648	0.09444	0.10259	0.11582
1065.03394	0.09933	0.09978	0.12301
1064.55127	0.1022	0.10069	0.12226
1063.94775	0.09576	0.10236	0.12688
1063.46472	0.09982	0.10491	0.11828
1062.98157	0.08974	0.10649	0.12264
1062.49817	0.09945	0.09857	0.11927
1062.01465	0.09166	0.10358	0.11622
1061.53101	0.09658	0.1011	0.11031
1061.04712	0.09691	0.10445	0.11542
1060.44202	0.0939	0.09624	0.12063
1059.95789	0.09866	0.11047	0.1196
1059.47351	0.0932	0.10113	0.11523
1058.98889	0.09099	0.09748	0.12189
1058.50415	0.10239	0.09892	0.11688
1058.01929	0.10095	0.10137	0.11357
1057.5343	0.10034	0.10242	0.12124
1057.04907	0.09616	0.10376	0.1177
1056.44238	0.09888	0.10475	0.11139
1055.95679	0.09566	0.10525	0.12462
1055.47107	0.10266	0.10285	0.12471
1054.98523	0.10309	0.10099	0.11346
1054.49915	0.10424	0.10246	0.12779
1054.01294	0.09634	0.1048	0.11954
1053.52649	0.10569	0.10278	0.12159
1053.04004	0.09945	0.1023	0.11931
1052.55335	0.09944	0.10475	0.12439
1051.9447	0.1021	0.1002	0.11923
1051.45764	0.10236	0.1061	0.11964
1050.97046	0.09995	0.10808	0.12466
1050.48303	0.0975	0.10335	0.12231
1049.99548	0.1035	0.10582	0.1247
1049.50769	0.10317	0.10042	0.12131
1049.0199	0.09904	0.10326	0.11699
1048.53186	0.10028	0.10052	0.1273
1048.04358	0.10188	0.10301	0.12302
1047.5553	0.10462	0.1073	0.12185
1046.94458	0.09991	0.10307	0.12711
1046.45593	0.09863	0.10183	0.12578
1045.96704	0.10173	0.10096	0.12594
1045.47791	0.10235	0.10856	0.12582
1044.98877	0.10024	0.10031	0.12655
1044.49939	0.09755	0.10175	0.12348
1044.00989	0.10966	0.10753	0.1201
1043.52014	0.10458	0.1044	0.12381
1043.03027	0.1011	0.10536	0.12822
1042.54028	0.10086	0.10448	0.12344
1042.05017	0.10496	0.10879	0.12634
1041.55981	0.10357	0.10812	0.12357
1040.94666	0.10212	0.1058	0.12914
1040.45593	0.10172	0.10661	0.12673
1039.96509	0.10904	0.108	0.12805
1039.47412	0.10263	0.10762	0.12859
1038.98291	0.10679	0.10679	0.12748
1038.49158	0.106	0.10491	0.12832
1038.00012	0.10794	0.10537	0.12777
1037.50842	0.10591	0.10844	0.12487
1037.0166	0.1053	0.10714	0.1259
1036.52466	0.1034	0.10508	0.13289
1036.03247	0.10346	0.11048	0.12741
1035.54016	0.10788	0.10816	0.13202
1035.04773	0.10585	0.10732	0.12857
1034.55518	0.10625	0.10804	0.13233
1033.93909	0.10414	0.10721	0.12986
1033.44617	0.10778	0.10875	0.13296
1032.953	0.10646	0.10736	0.125
1032.45972	0.10616	0.11107	0.1303
1031.96631	0.11047	0.1086	0.13035
1031.47266	0.10749	0.10641	0.13082
1030.97888	0.10554	0.10762	0.13059
1030.48499	0.10542	0.10856	0.13331
1029.99097	0.10607	0.11375	0.13446
1029.4967	0.10774	0.10711	0.13065
1029.00232	0.10918	0.11141	0.13183
1028.50769	0.11029	0.11112	0.13233
1028.01294	0.10859	0.11168	0.13301
1027.51807	0.10924	0.10983	0.13365
1027.02307	0.11109	0.10953	0.13249
1026.52783	0.10921	0.11257	0.1326
1026.03259	0.10893	0.11266	0.13553
1025.53699	0.10872	0.10883	0.13421
1025.04138	0.10777	0.1117	0.1311
1024.54553	0.11156	0.11089	0.13579
1024.04956	0.10896	0.11175	0.1366
1023.55341	0.11033	0.11085	0.13295
1023.05713	0.11103	0.10942	0.13406
1022.56067	0.11187	0.11167	0.13509
1021.93988	0.11201	0.11412	0.13747
1021.44305	0.10834	0.11395	0.13391
1020.94605	0.11197	0.11239	0.136
1020.44898	0.11278	0.11256	0.13626
1019.95166	0.11153	0.11278	0.13378
1019.45422	0.11231	0.10975	0.13598
1018.9566	0.11323	0.11472	0.1342
1018.45886	0.11361	0.11181	0.1369
1017.96094	0.11414	0.11348	0.13711
1017.46289	0.11381	0.11308	0.13745
1016.96466	0.11286	0.1142	0.13835
1016.46631	0.11568	0.11222	0.13749
1015.96777	0.11606	0.11587	0.13889
1015.46906	0.11329	0.11534	0.13899
1014.97022	0.1165	0.11349	0.13833
1014.47119	0.11652	0.11534	0.14098
1013.97205	0.1163	0.11418	0.14017
1013.47272	0.11428	0.11582	0.13829
1012.97321	0.1187	0.11613	0.13961
1012.47357	0.11665	0.116	0.14132
1011.97382	0.11619	0.1161	0.14257
1011.47388	0.11662	0.11567	0.13917
1010.97376	0.11638	0.1174	0.14138
1010.47351	0.11859	0.11697	0.13974
1009.97308	0.11593	0.11671	0.14046
1009.47253	0.1189	0.11638	0.14405
1008.9718	0.1187	0.11813	0.14004
1008.47095	0.11729	0.11843	0.14454
1007.96991	0.11925	0.11716	0.1438
1007.46869	0.1185	0.11849	0.1435
1006.96735	0.11834	0.11498	0.1434
1006.46582	0.12157	0.11836	0.143
1005.96417	0.12159	0.117	0.14313
1005.4624	0.11869	0.1183	0.14178
1004.96039	0.11961	0.11973	0.14402
1004.45831	0.12154	0.11684	0.14373
1003.95599	0.12069	0.11821	0.14274
1003.45361	0.12164	0.11781	0.14414
1002.95099	0.12025	0.11948	0.14586
1002.44824	0.12168	0.12048	0.14447
1001.94537	0.12166	0.11778	0.14481
1001.44232	0.12298	0.11933	0.14515
1000.93915	0.12231	0.11805	0.14828
1000.56165	0.1227	0.1191	0.14549
1000.05817	0.12225	0.12024	0.14621
999.5545	0.12321	0.12124	0.14839
999.05072	0.12372	0.12041	0.14715
998.54681	0.12413	0.11929	0.14615
998.04272	0.12509	0.12119	0.14756
997.53845	0.12366	0.1208	0.14728
997.03406	0.12674	0.12083	0.14909
996.52954	0.12621	0.12142	0.14842
996.02484	0.12593	0.12199	0.14768
995.51996	0.12636	0.12215	0.14984
995.01495	0.12626	0.1217	0.14941
994.50983	0.12667	0.12221	0.14885
994.00452	0.12695	0.12311	0.14983
993.49902	0.12712	0.12184	0.15007
992.99341	0.12782	0.12266	0.15085
992.48761	0.12784	0.12258	0.15088
991.98169	0.12685	0.12285	0.15104
991.47565	0.12799	0.12435	0.15183
990.96936	0.12999	0.12436	0.15242
990.46301	0.12895	0.12386	0.15042
989.95648	0.12967	0.12362	0.1536
989.44977	0.13044	0.12164	0.15131
988.94293	0.13089	0.12429	0.15299
988.56268	0.13031	0.12402	0.15292
988.0556	0.1312	0.1245	0.1529
987.54834	0.13128	0.12361	0.15494
987.04089	0.13184	0.12439	0.15478
986.53333	0.13348	0.12481	0.15397
986.02563	0.13394	0.12528	0.15329
985.51776	0.13234	0.12474	0.15581
985.0097	0.13185	0.12429	0.15485
984.50153	0.13332	0.12423	0.15667
983.99323	0.13318	0.12549	0.1559
983.48474	0.13328	0.12608	0.1561
982.97614	0.13409	0.1266	0.15774
982.46735	0.13327	0.12504	0.15726
981.95837	0.13406	0.12647	0.15711
981.44934	0.13566	0.12574	0.15857
980.94006	0.13682	0.1265	0.1582
980.55804	0.13647	0.12795	0.15904
980.04852	0.13684	0.12734	0.15942
979.53888	0.13631	0.12739	0.15966
979.02911	0.13719	0.12742	0.1594
978.51917	0.13824	0.12756	0.15988
978.00903	0.13766	0.12743	0.15952
977.49878	0.13828	0.12825	0.16054
976.9884	0.139	0.12827	0.16129
976.47784	0.13944	0.12923	0.16183
975.9671	0.13926	0.12916	0.16034
975.4563	0.14044	0.1285	0.16217
974.94525	0.14094	0.1287	0.16313
974.56189	0.14183	0.12908	0.16326
974.05066	0.14173	0.12956	0.16388
973.53925	0.14315	0.1298	0.16503
973.02765	0.1426	0.13103	0.16335
972.51593	0.14325	0.12914	0.16463
972.00409	0.14357	0.13017	0.16557
971.49207	0.14323	0.13059	0.16621
970.97986	0.14442	0.12975	0.16533
970.46753	0.14522	0.13105	0.16627
969.95508	0.14533	0.13063	0.16476
969.4425	0.14488	0.13071	0.16709
969.05792	0.14714	0.1317	0.16717
968.54504	0.14657	0.13168	0.16772
968.03198	0.14812	0.13053	0.16834
967.51886	0.14758	0.13268	0.16952
967.00549	0.14854	0.13157	0.17045
966.492	0.14843	0.13183	0.17089
965.97839	0.14914	0.13249	0.16872
965.46466	0.15034	0.13256	0.17023
964.95068	0.14987	0.13418	0.17136
964.43665	0.15017	0.13258	0.17125
964.05096	0.15182	0.13261	0.17221
963.53668	0.15112	0.13286	0.17374
963.02216	0.15273	0.13375	0.17334
962.50757	0.1534	0.13372	0.17373
961.9928	0.15222	0.13302	0.17448
961.47784	0.15312	0.13336	0.17503
960.96277	0.15359	0.13455	0.1752
960.44757	0.15524	0.13472	0.17667
960.06104	0.15691	0.13533	0.17619
959.54559	0.15711	0.13569	0.1774
959.02997	0.15718	0.13396	0.17847
958.51416	0.15739	0.13532	0.17831
957.99823	0.15828	0.13513	0.17904
957.48218	0.15882	0.13619	0.17817
956.96594	0.15942	0.13519	0.18085
956.44959	0.15918	0.13622	0.18024
956.06226	0.16064	0.13717	0.18114
955.54559	0.16069	0.13697	0.18195
955.02887	0.16118	0.13643	0.18302
954.5119	0.16268	0.13699	0.18358
953.99487	0.16315	0.13675	0.18312
953.47766	0.16306	0.13757	0.18423
952.96027	0.16432	0.13772	0.18565
952.44281	0.16427	0.1369	0.18486
952.05457	0.16561	0.13801	0.18675
951.5368	0.16629	0.13776	0.18771
951.01892	0.16712	0.13786	0.18868
950.50085	0.16829	0.13812	0.18856
949.98261	0.1681	0.13828	0.18947
949.46429	0.16834	0.13843	0.19032
948.9458	0.16859	0.13923	0.19034
948.55682	0.16952	0.13845	0.19063
948.03809	0.17074	0.14031	0.19216
947.51917	0.17125	0.13952	0.1926
947.00012	0.17287	0.1401	0.1941
946.48096	0.17284	0.13985	0.19399
945.96161	0.17368	0.14022	0.19649
945.44214	0.17388	0.14063	0.1959
945.05243	0.17518	0.14023	0.19666
944.53271	0.17541	0.14073	0.19746
944.01282	0.17736	0.14012	0.19859
943.4928	0.17728	0.14103	0.20066
942.97266	0.17897	0.14179	0.20075
942.45233	0.17992	0.14145	0.20114
942.06195	0.18036	0.14199	0.20326
941.54138	0.18181	0.14217	0.20328
941.02069	0.18117	0.14184	0.20611
940.49982	0.18247	0.14322	0.20694
939.97882	0.18329	0.14179	0.20725
939.4577	0.18386	0.14297	0.20816
938.9364	0.18551	0.14337	0.20918
938.54535	0.18635	0.14313	0.21072
938.02374	0.18776	0.14351	0.21234
937.50208	0.18792	0.14376	0.21294
936.98022	0.1896	0.14412	0.21336
936.45825	0.18974	0.14428	0.21463
935.93616	0.18975	0.14436	0.21641
935.54443	0.19179	0.14561	0.21855
935.02209	0.19227	0.14409	0.21927
934.49957	0.19399	0.14445	0.2209
933.97687	0.19383	0.14581	0.22257
933.4541	0.19577	0.14635	0.22433
933.06189	0.19705	0.14612	0.22433
932.53882	0.19799	0.14607	0.22786
932.01563	0.19806	0.14674	0.22736
931.49225	0.20145	0.14696	0.23072
930.96875	0.20158	0.14786	0.2311
930.44513	0.20195	0.1467	0.23337
930.05231	0.20364	0.14835	0.23454
929.52844	0.20462	0.14925	0.23748
929.00439	0.20483	0.14907	0.23749
928.48022	0.20653	0.14822	0.23999
927.95593	0.20865	0.14868	0.24238
927.56256	0.21001	0.14929	0.24392
927.03802	0.20962	0.14941	0.24561
926.51331	0.21123	0.14958	0.24763
925.98846	0.21232	0.14982	0.24915
925.46344	0.21411	0.14989	0.25117
924.93829	0.21495	0.15055	0.25451
924.54437	0.21602	0.15026	0.25672
924.01898	0.21691	0.15105	0.25873
923.49347	0.2183	0.15097	0.26064
922.96777	0.21983	0.15138	0.26343
922.44196	0.22095	0.15145	0.2652
922.04755	0.22298	0.15299	0.26849
921.52148	0.22445	0.15195	0.27065
920.99524	0.22537	0.15195	0.27441
920.46893	0.22725	0.15216	0.27604
919.94244	0.22922	0.15264	0.2804
919.54749	0.22968	0.15327	0.2819
919.02075	0.23183	0.15359	0.28559
918.49384	0.23308	0.15392	0.28789
917.96686	0.23446	0.15397	0.29154
917.4397	0.23574	0.15402	0.2939
917.04419	0.23757	0.15428	0.29643
916.51678	0.23887	0.15409	0.29956
915.98926	0.24015	0.15447	0.30281
915.46155	0.24244	0.15499	0.30589
915.06573	0.24309	0.15522	0.30811
914.53778	0.24563	0.15527	0.31295
914.0097	0.24633	0.15578	0.31618
913.48145	0.25024	0.15614	0.31997
912.95313	0.25011	0.15653	0.32473
912.55676	0.252	0.15647	0.32763
912.02814	0.2542	0.15676	0.33056
911.49939	0.25549	0.15726	0.33635
910.97052	0.25763	0.15717	0.33907
910.44147	0.25917	0.15713	0.3453
910.04462	0.26023	0.15821	0.34564
909.51538	0.26282	0.15766	0.35196
908.98596	0.26542	0.15847	0.35779
908.45642	0.26735	0.15828	0.3625
908.05914	0.26852	0.15914	0.36411
907.52936	0.27133	0.15933	0.36925
906.99939	0.27382	0.15998	0.37258
906.4693	0.2758	0.15946	0.37858
905.93909	0.278	0.15989	0.38372
905.54138	0.27966	0.15985	0.38821
905.01093	0.28177	0.16015	0.39341
904.48029	0.2823	0.15989	0.39597
903.94959	0.28594	0.16054	0.40251
903.55139	0.28667	0.16048	0.4069
903.02045	0.28998	0.16078	0.4116
902.48932	0.29317	0.16162	0.4155
901.95807	0.29581	0.16238	0.42275
901.55951	0.2957	0.1616	0.42578
901.02802	0.30008	0.16204	0.43391
900.49634	0.30094	0.16229	0.43911
899.9646	0.30618	0.16246	0.44661
899.56567	0.30661	0.16228	0.44847
899.03363	0.30948	0.16294	0.45634
898.50146	0.31231	0.16291	0.45943
897.96918	0.31516	0.16271	0.46926
897.43671	0.31735	0.16374	0.47425
897.03729	0.31978	0.16381	0.47771
896.50464	0.32341	0.16409	0.48601
895.9718	0.3255	0.16471	0.49043
895.43884	0.32851	0.16534	0.49741
895.03906	0.32968	0.16525	0.50023
894.50586	0.33316	0.16544	0.50917
893.97247	0.33568	0.1657	0.51257
893.43903	0.3404	0.16576	0.52336
893.03882	0.34143	0.1666	0.52473
892.50513	0.34591	0.16603	0.53544
891.97125	0.34879	0.16663	0.53954
891.43726	0.35322	0.16782	0.5482
891.03668	0.3537	0.16937	0.55344
890.50244	0.35856	0.16861	0.55761
889.96808	0.36093	0.16851	0.56729
889.43359	0.36499	0.16968	0.57292
889.03259	0.3679	0.17009	0.57828
888.49786	0.37222	0.16974	0.58653
887.96301	0.37582	0.17064	0.59628
887.56171	0.37765	0.17116	0.60044
887.02661	0.38242	0.17256	0.60647
886.49133	0.38612	0.17275	0.61302
885.95593	0.39036	0.17291	0.62317
885.55432	0.39198	0.17404	0.62623
885.01868	0.3978	0.17418	0.63686
884.48291	0.40096	0.17531	0.64195
883.94702	0.40632	0.17607	0.65298
883.54498	0.4094	0.17743	0.65809
883.00885	0.41428	0.17774	0.66332
882.4726	0.4172	0.17901	0.67274
881.93616	0.42178	0.17978	0.67848
881.53375	0.42483	0.18142	0.68342
880.99707	0.42884	0.18158	0.68989
880.46033	0.43444	0.18336	0.70147
880.05762	0.43891	0.1843	0.70577
879.52063	0.44268	0.18624	0.71144
878.98346	0.44681	0.18754	0.72104
878.44617	0.44994	0.18944	0.73251
878.04309	0.4549	0.19092	0.73175
877.50555	0.46024	0.19204	0.74332
876.9679	0.46498	0.1939	0.75214
876.56451	0.47112	0.19516	0.75436
876.02661	0.47253	0.1979	0.76209
875.48859	0.47821	0.19845	0.77294
874.95038	0.48454	0.2014	0.77777
874.54669	0.4883	0.20322	0.78869
874.0083	0.4928	0.20502	0.78928
873.46973	0.49875	0.20691	0.79823
873.06573	0.50365	0.20879	0.81277
872.52692	0.50842	0.2118	0.80807
871.98804	0.51345	0.21392	0.82777
871.44897	0.51728	0.21606	0.82744
871.04462	0.52333	0.21838	0.84726
870.50531	0.52732	0.22052	0.84148
869.96588	0.53352	0.22178	0.85747
869.56122	0.53784	0.22502	0.85265
869.02161	0.54231	0.22788	0.85826
868.48181	0.549	0.2305	0.87974
867.94189	0.55532	0.2326	0.87391
867.53687	0.55922	0.23553	0.8913
866.9967	0.56278	0.23633	0.88926
866.45642	0.56927	0.23965	0.89693
866.05109	0.57404	0.24285	0.89825
865.51056	0.57944	0.24462	0.9167
864.96991	0.58292	0.24849	0.92155
864.56433	0.58913	0.24927	0.91858
864.02344	0.59368	0.25249	0.93247
863.48242	0.60114	0.25391	0.93733
862.94128	0.60261	0.25723	0.94656
862.53534	0.60691	0.25933	0.94033
861.9939	0.61236	0.26116	0.9498
861.45239	0.61924	0.26283	0.95695
861.04614	0.62684	0.26369	0.96358
860.50439	0.62939	0.26778	0.95988
859.96252	0.63738	0.26987	0.96777
859.55603	0.64239	0.2721	0.97628
859.01392	0.64367	0.27336	0.98102
858.47168	0.64728	0.27311	0.98499
858.06488	0.65478	0.27549	1.00294
857.5224	0.65868	0.27807	0.99895
856.9798	0.66461	0.27908	0.99701
856.43707	0.6661	0.28188	1.01172
856.02991	0.67109	0.2828	1.00147
855.48694	0.67916	0.2838	1.00422
854.94379	0.68175	0.28456	1.00329
854.53638	0.68624	0.2874	1.01936
853.99304	0.69021	0.28827	1.00735
853.44959	0.69913	0.28846	1.02176
853.04187	0.69996	0.29076	1.01547
852.49817	0.70194	0.29246	1.03196
851.95435	0.70883	0.29178	1.01755
851.54639	0.71195	0.29303	1.03132
851.00232	0.71163	0.29477	1.01816
850.45813	0.71736	0.29486	1.01628
850.04993	0.7227	0.29557	1.0213
849.50549	0.72073	0.29547	1.03569
848.96094	0.72861	0.29658	1.03096
848.55243	0.73305	0.29707	1.01901
848.00763	0.73711	0.29823	1.02796
847.46277	0.74113	0.29857	1.0264
847.05396	0.74329	0.29829	1.02098
846.50885	0.7433	0.29852	1.01611
845.96356	0.7526	0.2998	1.03356
845.5545	0.74773	0.30025	1.01593
845.00903	0.75494	0.30075	1.00572
844.46338	0.7579	0.30133	1.01395
844.05408	0.76182	0.30231	1.00455
843.50824	0.7656	0.30165	0.99783
842.96222	0.77085	0.302	1.00654
842.55267	0.76648	0.30241	0.99529
842.00647	0.77282	0.30241	0.98848
841.46008	0.77371	0.30354	0.98754
841.05023	0.7769	0.3031	0.99397
840.50366	0.77839	0.30362	0.9755
839.95697	0.78156	0.30293	0.97634
839.54688	0.78539	0.30371	0.9865
838.99994	0.78252	0.30387	0.97887
838.45288	0.78675	0.30324	0.96277
838.04254	0.78767	0.30292	0.96365
837.49524	0.79104	0.30435	0.95862
836.94781	0.79375	0.30376	0.94799
836.53717	0.7982	0.30429	0.94981
835.98956	0.79784	0.30506	0.94482
835.44177	0.79878	0.30491	0.93366
835.03088	0.79929	0.30496	0.93432
834.48285	0.79951	0.30479	0.92469
833.93475	0.80323	0.3042	0.92016
833.52356	0.80394	0.30445	0.91261
832.97522	0.80486	0.30461	0.91439
832.5639	0.80262	0.30421	0.90448
832.01532	0.80743	0.30472	0.90109
831.46661	0.80774	0.30435	0.89448
831.05505	0.81015	0.30454	0.88629
830.5061	0.80732	0.30502	0.87774
829.95703	0.80992	0.30537	0.87819
829.54517	0.81029	0.30485	0.87447
828.99591	0.80944	0.30506	0.86243
828.44653	0.81311	0.30487	0.8603
828.03436	0.81244	0.30485	0.8556
827.48474	0.81396	0.30454	0.8482
826.935	0.81443	0.30451	0.84544
826.52258	0.81753	0.30441	0.83364
825.97266	0.81399	0.30431	0.83478
825.56006	0.81534	0.30507	0.82391
825.00989	0.81528	0.30494	0.8207
824.45953	0.81736	0.30543	0.81352
824.04669	0.81546	0.30527	0.80758
823.49615	0.81566	0.30439	0.80173
822.9455	0.81407	0.3044	0.79737
822.53241	0.81563	0.30458	0.79256
821.98151	0.81417	0.30411	0.78807
821.56824	0.81818	0.305	0.77872
821.01715	0.81597	0.30505	0.77746
820.46588	0.81296	0.3053	0.77023
820.05237	0.81389	0.30499	0.76929
819.50092	0.81124	0.30422	0.75957
818.94934	0.81405	0.30452	0.75907
818.53558	0.81347	0.30405	0.75016
817.98376	0.81726	0.30562	0.73945
817.43182	0.81278	0.30523	0.74368
817.01776	0.81127	0.30506	0.73293
816.46564	0.80918	0.3045	0.73069
816.05139	0.81104	0.30458	0.72872
815.49902	0.80795	0.30382	0.71528
814.94653	0.80732	0.30526	0.72048
814.53204	0.8093	0.3039	0.71155
813.97937	0.80832	0.30425	0.70181
813.5647	0.80729	0.30431	0.69766
813.01178	0.80609	0.30422	0.69496
812.45874	0.80687	0.30415	0.68993
812.04382	0.80327	0.30365	0.69313
811.49054	0.8035	0.3041	0.68335
810.93713	0.80711	0.3037	0.68323
810.52197	0.80085	0.30425	0.67448
809.96838	0.80163	0.30243	0.67393
809.55304	0.79809	0.3048	0.669
808.99921	0.79634	0.30374	0.66282
808.44525	0.80094	0.30355	0.66523
808.02966	0.79332	0.30282	0.65712
807.47546	0.7969	0.30392	0.65769
807.05975	0.797	0.304	0.65035
806.50537	0.79337	0.30372	0.65113
805.95081	0.79084	0.30393	0.64576
805.53485	0.78806	0.30391	0.64094
804.9801	0.78766	0.30281	0.63352
804.56396	0.78409	0.304	0.63997
804.00897	0.78538	0.30253	0.63312
803.45386	0.78527	0.30334	0.62763
803.03748	0.78077	0.30282	0.62792
802.48218	0.77857	0.30336	0.62309
802.06561	0.78024	0.30342	0.61994
801.51007	0.77799	0.30325	0.61594
800.95447	0.77511	0.30365	0.61886
800.5376	0.77446	0.30234	0.61636
799.98175	0.77658	0.30236	0.61122
799.56476	0.77382	0.30152	0.60685
799.00873	0.77081	0.30233	0.60921
798.45251	0.76625	0.30317	0.6031
798.03528	0.76662	0.30189	0.60508
797.47888	0.76536	0.3021	0.60125
797.06146	0.76526	0.30158	0.60099
796.50482	0.76037	0.30145	0.59196
795.94806	0.76231	0.30236	0.59318
795.53046	0.76067	0.30121	0.58917
794.97345	0.75613	0.30053	0.58854
794.55566	0.75808	0.30075	0.58677
793.99847	0.75605	0.30179	0.58892
793.44116	0.75228	0.30143	0.58189
793.02313	0.75144	0.30126	0.58066
792.46558	0.7487	0.30047	0.58188
792.04736	0.74814	0.30082	0.58128
791.48962	0.74326	0.29971	0.57593
790.93176	0.74463	0.30084	0.57966
790.51331	0.74443	0.30023	0.57478
789.95526	0.74148	0.30012	0.57422
789.53662	0.74066	0.29924	0.57181
788.97833	0.73655	0.29977	0.57161
788.55951	0.73635	0.29916	0.5718
788.00104	0.73499	0.29898	0.57222
787.44244	0.73281	0.29889	0.57059
787.02338	0.73121	0.29838	0.56657
786.46454	0.7266	0.29909	0.56671
786.04535	0.72708	0.2983	0.56693
785.48633	0.7276	0.29798	0.56895
785.06696	0.72277	0.29804	0.56559
784.50769	0.72105	0.29765	0.56723
783.9483	0.72157	0.29757	0.56379
783.52875	0.71731	0.29822	0.56718
782.96912	0.71704	0.29789	0.56446
782.54938	0.71612	0.29697	0.56154
781.98956	0.71368	0.29693	0.56576
781.56964	0.71205	0.29656	0.56305
781.00964	0.71025	0.29622	0.56265
780.44952	0.7078	0.29582	0.56036
780.02936	0.70464	0.29609	0.56533
779.46899	0.70557	0.29546	0.56524
779.04871	0.70458	0.29596	0.56295
778.48816	0.70304	0.29524	0.5624
778.06763	0.70208	0.29561	0.56121
777.5069	0.69992	0.29573	0.56173
776.94598	0.69885	0.29524	0.56034
776.52527	0.69565	0.29555	0.56658
775.96417	0.69551	0.29482	0.56273
775.54327	0.69459	0.29473	0.56617
774.98199	0.69072	0.29461	0.56472
774.56097	0.69228	0.29518	0.56775
773.99945	0.68917	0.29426	0.56764
773.43781	0.68588	0.29455	0.56614
773.01654	0.68652	0.29459	0.56783
772.45471	0.6827	0.29479	0.56652
772.03326	0.68438	0.29453	0.56979
771.47119	0.68282	0.2942	0.56798
771.04962	0.67995	0.2946	0.57144
770.48737	0.6821	0.29411	0.57054
770.06561	0.67891	0.29401	0.57626
769.50311	0.67703	0.29342	0.57712
768.94055	0.67553	0.29387	0.5745
768.51855	0.67226	0.29415	0.57323
767.95575	0.67192	0.29417	0.57831
767.53363	0.67189	0.29438	0.57664
766.97064	0.66936	0.29409	0.57794
766.54828	0.66901	0.29366	0.57966
765.98511	0.66726	0.29349	0.57873
765.56262	0.66579	0.29365	0.5796
764.99927	0.66357	0.29329	0.58391
764.43573	0.66334	0.29448	0.58052
764.013	0.66261	0.29427	0.58535
763.44928	0.66123	0.29413	0.58591
763.02643	0.65936	0.29417	0.58763
762.46246	0.65931	0.29406	0.58704
762.03943	0.65893	0.29375	0.58443
761.47534	0.65584	0.29456	0.58788
761.05212	0.6574	0.29419	0.5877
760.48779	0.65284	0.29483	0.59002
760.06445	0.65612	0.29349	0.58989
759.49994	0.65241	0.29414	0.59248
758.93524	0.65249	0.29507	0.59196
758.51166	0.6497	0.29481	0.59534
757.94684	0.64949	0.29561	0.59583
757.52307	0.64676	0.29472	0.59422
756.95801	0.64688	0.29441	0.59682
756.53412	0.64752	0.29482	0.59641
755.96887	0.6449	0.29535	0.59702
755.5448	0.64804	0.29567	0.59842
754.97937	0.64463	0.29537	0.59892
754.55518	0.64301	0.29557	0.59898
753.9895	0.64317	0.29582	0.599
753.56512	0.6409	0.29577	0.60101
752.99927	0.64056	0.29542	0.60497
752.43323	0.63982	0.29577	0.60464
752.00867	0.63821	0.29629	0.60398
751.44244	0.63867	0.29576	0.601
751.01776	0.63702	0.29608	0.60543
750.45136	0.63567	0.29628	0.6061
750.02643	0.63414	0.29563	0.60933
749.45984	0.63381	0.2962	0.60669
749.03479	0.63248	0.2967	0.60863
748.46802	0.6339	0.2962	0.60593
748.04279	0.63254	0.29651	0.60637
747.47577	0.62955	0.29656	0.60811
747.05048	0.6295	0.29596	0.60741
746.48322	0.62986	0.29727	0.60675
746.05774	0.62936	0.29632	0.6095
745.49036	0.627	0.29649	0.61005
745.0647	0.6275	0.29656	0.6082
744.49707	0.62574	0.2969	0.60897
743.92938	0.62658	0.2968	0.61197
743.50348	0.62401	0.29681	0.60854
742.93555	0.62287	0.2973	0.61138
742.50952	0.62399	0.29671	0.61116
741.94141	0.6223	0.29689	0.61194
741.5152	0.62254	0.29724	0.60884
740.9469	0.62222	0.29621	0.61262
740.52057	0.61911	0.29678	0.61167
739.95203	0.6183	0.29685	0.60887
739.52557	0.61913	0.29638	0.61154
738.95685	0.61792	0.2967	0.60991
738.53021	0.61762	0.29672	0.61247
737.96124	0.61592	0.29616	0.60977
737.53448	0.61512	0.2958	0.60957
736.96539	0.61373	0.29658	0.61171
736.53845	0.61254	0.29592	0.60886
735.96912	0.6125	0.29596	0.61188
735.54205	0.61121	0.29614	0.61224
734.97253	0.61076	0.29613	0.61201
734.54529	0.6115	0.29521	0.61126
733.97559	0.60985	0.29511	0.61197
733.54822	0.60951	0.29501	0.60911
732.97827	0.60878	0.29464	0.60897
732.55078	0.6083	0.29471	0.61004
731.98065	0.60699	0.29402	0.60932
731.55298	0.6071	0.29426	0.60964
730.98267	0.60647	0.29425	0.60956
730.55487	0.60496	0.29346	0.609
729.98431	0.6035	0.29295	0.60754
729.5564	0.60319	0.29319	0.60656
728.98566	0.60235	0.29266	0.60665
728.55756	0.60155	0.29213	0.60663
727.98663	0.60077	0.29175	0.60537
727.55841	0.59976	0.29145	0.60467
726.9873	0.59855	0.29111	0.6023
726.5589	0.59807	0.29104	0.6007
725.98761	0.59742	0.29049	0.60085
725.55902	0.59511	0.29002	0.60036
724.98755	0.59564	0.28912	0.60155
724.55884	0.59507	0.28986	0.60105
723.98718	0.59416	0.28876	0.59807
723.55835	0.59319	0.28821	0.59681
722.98645	0.59166	0.28719	0.59599
722.55743	0.59144	0.28727	0.59587
721.98535	0.59057	0.28669	0.59623
721.55621	0.5896	0.28568	0.59588
720.98395	0.58815	0.28566	0.59272
720.55469	0.58753	0.28504	0.59069
719.98224	0.58626	0.28465	0.59232
719.5528	0.58548	0.28383	0.58896
718.9801	0.58459	0.28282	0.59012
718.55054	0.58438	0.28294	0.58908
717.97772	0.5829	0.28176	0.58785
717.54797	0.58203	0.28148	0.58688
716.97491	0.57972	0.28026	0.58656
716.54504	0.57991	0.28029	0.58504
715.9718	0.57834	0.27929	0.58284
715.54181	0.57743	0.27921	0.58123
714.96838	0.57614	0.2779	0.58115
714.53821	0.57508	0.27705	0.58015
713.9646	0.57486	0.27681	0.57877
713.5343	0.57312	0.27583	0.57849
712.96051	0.57182	0.27554	0.57626
712.53003	0.57076	0.27446	0.57572
711.95605	0.5691	0.27423	0.57455
711.52545	0.56867	0.27299	0.57206
710.95123	0.56736	0.27275	0.57175
710.52051	0.56602	0.27187	0.56924
709.94611	0.5652	0.27162	0.56964
709.51526	0.56391	0.27027	0.56719
708.94067	0.56262	0.26943	0.5652
708.50964	0.56132	0.26919	0.56329
707.93488	0.56024	0.26814	0.56181
707.50372	0.55949	0.26752	0.56142
706.92871	0.55751	0.26689	0.55907
706.49744	0.55685	0.26587	0.55831
706.0661	0.55515	0.26582	0.55667
705.49084	0.55475	0.26475	0.55528
705.05933	0.5531	0.2645	0.55496
704.48389	0.55271	0.26325	0.55296
704.05225	0.55068	0.26274	0.55128
703.47662	0.54927	0.26145	0.55042
703.04486	0.54877	0.26115	0.54875
702.46899	0.54686	0.26064	0.5478
702.03711	0.54641	0.25994	0.54635
701.46106	0.54435	0.25959	0.5454
701.02899	0.54298	0.25848	0.54423
700.45282	0.54115	0.25806	0.54319
700.02063	0.54022	0.25728	0.54124
699.44421	0.53965	0.25686	0.54053
699.0119	0.53765	0.25577	0.53852
698.4353	0.53661	0.25555	0.53793
698.00281	0.53478	0.25467	0.53617
697.57025	0.53433	0.25436	0.53528
696.99341	0.53278	0.2537	0.53406
696.56073	0.53162	0.25309	0.53164
695.9837	0.5305	0.2527	0.53021
695.55084	0.52854	0.25245	0.52983
694.97363	0.52944	0.2511	0.528
694.54065	0.52607	0.25114	0.52661
693.96326	0.52519	0.25005	0.52524
693.53015	0.5231	0.24947	0.52482
692.95258	0.52211	0.24879	0.5246
692.51929	0.52078	0.24881	0.52344
691.94153	0.51956	0.24832	0.52201
691.50812	0.51829	0.24684	0.52179
690.93018	0.51712	0.2469	0.5196
690.49664	0.5152	0.24601	0.51859
690.06305	0.51408	0.2457	0.517
689.4848	0.51306	0.24544	0.51613
689.05109	0.51115	0.24491	0.51505
688.47266	0.51017	0.2442	0.51339
688.03876	0.50861	0.24395	0.51277
687.46014	0.50728	0.24336	0.51151
687.02618	0.50742	0.24268	0.51001
686.44739	0.5049	0.24285	0.5089
686.01324	0.50477	0.24223	0.50807
685.43427	0.50307	0.24148	0.50714
684.99994	0.5004	0.24091	0.50571
684.56561	0.49992	0.24087	0.50504
683.98639	0.49902	0.24035	0.50342
683.55188	0.49732	0.23999	0.50267
682.97247	0.49641	0.23983	0.50081
682.53784	0.4948	0.2392	0.50054
681.95825	0.494	0.23853	0.49959
681.52344	0.49356	0.23855	0.49822
680.94366	0.49195	0.23776	0.49762
680.50879	0.4903	0.23757	0.49611
679.92883	0.48945	0.23713	0.49636
679.49377	0.48774	0.23675	0.49393
679.05865	0.48744	0.23636	0.49402
678.47845	0.48602	0.23631	0.49265
678.04321	0.48424	0.2359	0.49158
677.46277	0.4829	0.23553	0.4898
677.0274	0.48168	0.23497	0.48768
676.44678	0.4817	0.23471	0.48761
676.01129	0.48017	0.23451	0.48625
675.43054	0.47848	0.23387	0.48522
674.99487	0.4778	0.23364	0.48432
674.55914	0.47689	0.23331	0.48332
673.97815	0.47551	0.23365	0.48255
673.5423	0.47418	0.23295	0.48136
672.96106	0.47376	0.23216	0.48138
672.52509	0.47199	0.2321	0.4811
671.94366	0.47199	0.23228	0.47978
671.50757	0.47041	0.2311	0.47856
671.07141	0.4686	0.23069	0.47824
670.48975	0.4683	0.23064	0.47735
670.05341	0.46628	0.23028	0.47597
669.47156	0.4666	0.22995	0.47453
669.03516	0.46457	0.22961	0.47425
668.45313	0.46448	0.22908	0.47257
668.01654	0.46345	0.22905	0.47237
667.43433	0.46333	0.22784	0.47145
666.99762	0.46196	0.22803	0.4701
666.56085	0.46082	0.22765	0.46954
665.97839	0.45909	0.22714	0.46749
665.5415	0.45842	0.22689	0.46672
664.95886	0.45827	0.22598	0.46562
664.52179	0.45662	0.22591	0.4643
663.93896	0.45534	0.22553	0.46369
663.50183	0.4544	0.22517	0.46252
663.06458	0.45247	0.2242	0.46085
662.48151	0.45296	0.22365	0.46003
662.04413	0.45243	0.22364	0.45835
661.46088	0.45107	0.22311	0.45743
661.02338	0.44952	0.22285	0.45575
660.43994	0.44894	0.22228	0.45461
660.00232	0.44811	0.22212	0.45396
659.56464	0.44733	0.2215	0.45196
658.98096	0.44645	0.22083	0.45151
658.54309	0.44529	0.22003	0.44942
657.95923	0.44446	0.21977	0.44858
657.5213	0.44288	0.21965	0.4462
656.93726	0.44272	0.21856	0.44482
656.49915	0.44177	0.21842	0.44461
656.06104	0.44035	0.21785	0.44236
655.47675	0.43954	0.21703	0.44143
655.03845	0.43778	0.21659	0.44013
654.45398	0.43778	0.21595	0.43884
654.01556	0.43595	0.21546	0.43674
653.43091	0.43634	0.21516	0.43548
652.99237	0.43444	0.21416	0.43299
652.55377	0.43333	0.2139	0.43214
651.96887	0.4324	0.21278	0.42961
651.53015	0.43114	0.21277	0.42814
650.94507	0.4304	0.21201	0.4267
650.50623	0.42913	0.2114	0.42485
650.06726	0.42876	0.21058	0.42442
649.48199	0.42728	0.21033	0.42146
649.04291	0.42627	0.20943	0.42048
648.4574	0.42588	0.20905	0.4184
648.01825	0.42405	0.20864	0.41663
647.43256	0.42396	0.20734	0.41465
646.99323	0.42207	0.20746	0.4126
646.55389	0.42099	0.20671	0.41163
645.96796	0.41989	0.2064	0.40952
645.52844	0.41851	0.20563	0.40748
644.94238	0.41778	0.20441	0.40531
644.50275	0.4165	0.20417	0.40372
644.06305	0.41558	0.20374	0.40199
643.47668	0.41472	0.20305	0.39931
643.03687	0.41261	0.20243	0.39731
642.45038	0.41176	0.2016	0.39549
642.01044	0.41092	0.20092	0.39396
641.57037	0.40992	0.20092	0.39287
640.98364	0.40788	0.20018	0.38916
640.54352	0.40702	0.19888	0.38845
639.95654	0.40581	0.19904	0.38512
639.5163	0.40441	0.19839	0.38436
638.9292	0.40223	0.19764	0.38127
638.48883	0.40191	0.19707	0.37973
638.04834	0.40072	0.19659	0.37827
637.461	0.39906	0.19589	0.37507
637.02045	0.39798	0.19513	0.374
636.43292	0.39598	0.19493	0.37073
635.99219	0.39469	0.1942	0.36887
635.55145	0.39343	0.1939	0.36765
634.96368	0.3921	0.1933	0.3644
634.52277	0.39129	0.19249	0.36356
633.93481	0.38887	0.19225	0.36012
633.49384	0.38786	0.19153	0.3586
633.05273	0.3863	0.19121	0.35709
632.46454	0.3845	0.19072	0.35444
632.02338	0.38332	0.19	0.35302
631.435	0.38141	0.18983	0.34923
630.99365	0.37986	0.18896	0.34871
630.55231	0.37839	0.18854	0.34595
629.96368	0.37717	0.18758	0.34382
629.52216	0.37484	0.18759	0.34185
628.93341	0.37397	0.18693	0.33931
628.49176	0.37229	0.18617	0.33794
628.05011	0.37044	0.18549	0.33537
627.46106	0.36978	0.18517	0.33339
627.01929	0.36703	0.18489	0.33083
626.43005	0.36591	0.18403	0.32874
625.98816	0.36366	0.18387	0.32764
625.54614	0.36246	0.18315	0.32499
624.95673	0.36121	0.18262	0.32325
624.51459	0.35932	0.18245	0.32076
624.07239	0.35796	0.18192	0.319
623.48273	0.35548	0.18137	0.3163
623.04047	0.35453	0.18045	0.31464
622.45062	0.35235	0.17986	0.31269
622.00818	0.34979	0.17941	0.31069
621.56567	0.3492	0.17881	0.30854
620.97565	0.34681	0.17835	0.30633
620.53302	0.34453	0.17813	0.30446
619.94275	0.34285	0.1778	0.30174
619.50006	0.34171	0.17659	0.29985
619.05725	0.3399	0.17623	0.29817
618.4668	0.33793	0.17564	0.29594
618.02386	0.33647	0.17528	0.29486
617.43323	0.33385	0.17483	0.29237
616.99017	0.33231	0.17392	0.29116
616.54706	0.33067	0.17352	0.29009
615.95618	0.32911	0.17255	0.28754
615.513	0.3272	0.17213	0.28631
615.0697	0.32525	0.17168	0.2835
614.47858	0.32436	0.17067	0.28243
614.03522	0.32134	0.17006	0.27982
613.44391	0.32028	0.16956	0.27825
613.00043	0.31752	0.16895	0.27592
612.55682	0.31607	0.16843	0.27408
611.96533	0.31469	0.16728	0.27304
611.52161	0.31183	0.16695	0.27126
610.92993	0.31057	0.16626	0.26958
610.48608	0.30805	0.16583	0.26724
610.04224	0.30646	0.1646	0.26571
609.45032	0.305	0.16425	0.26446
609.00635	0.30248	0.1635	0.26242
608.56226	0.30136	0.16266	0.26115
607.97009	0.29923	0.16224	0.25924
607.52594	0.29746	0.16161	0.25771
606.93365	0.29556	0.16078	0.25561
606.48932	0.29352	0.15984	0.25477
606.04498	0.29193	0.15943	0.25298
605.45245	0.29016	0.15828	0.25153
605.008	0.28816	0.15785	0.25041
604.56348	0.28653	0.15727	0.24851
603.97064	0.28539	0.15632	0.2477
603.526	0.28309	0.15595	0.24621
602.93311	0.28133	0.15483	0.24489
602.48828	0.27991	0.15416	0.24402
602.04352	0.27811	0.15356	0.24177
601.45032	0.27665	0.15245	0.24118
601.00537	0.27408	0.15219	0.23935
600.56036	0.27294	0.15095	0.23782
599.96698	0.27152	0.15046	0.23663
599.52185	0.26898	0.1499	0.23533
598.92828	0.26828	0.14899	0.23401
598.48303	0.2654	0.14835	0.23262
598.03778	0.26442	0.1474	0.23117
597.44397	0.26284	0.14699	0.23007
596.99854	0.26144	0.14609	0.22898
596.5531	0.25996	0.14521	0.22743
595.95905	0.25812	0.1446	0.22637
595.51349	0.25667	0.14418	0.22595
595.06787	0.2546	0.14384	0.22394
594.47357	0.25344	0.14263	0.2231
594.02783	0.25171	0.14239	0.22161
593.43341	0.2506	0.14158	0.22084
592.98755	0.24878	0.1408	0.21983
592.54163	0.2472	0.14026	0.2186
591.94696	0.24679	0.1392	0.21767
591.50092	0.24442	0.13904	0.21643
591.05487	0.24332	0.13788	0.21532
590.45996	0.24191	0.13774	0.21485
590.01373	0.24006	0.13702	0.2138
589.5675	0.2391	0.13659	0.21236
588.97241	0.23718	0.1359	0.21184
588.526	0.23664	0.13519	0.21079
587.93073	0.23515	0.1345	0.20992
587.48425	0.23392	0.13365	0.20883
587.03766	0.2326	0.13336	0.20832
586.4422	0.23107	0.13283	0.20702
585.99554	0.23026	0.13216	0.20642
585.54883	0.22829	0.13194	0.20551
584.95306	0.22787	0.13079	0.20473
584.50623	0.22619	0.1306	0.2042
584.05933	0.22487	0.13034	0.2033
583.46344	0.2242	0.12936	0.20272
583.01642	0.22275	0.12885	0.20248
582.56934	0.22259	0.128	0.20163
581.97321	0.22065	0.12748	0.20051
581.526	0.22042	0.12726	0.20031
580.92969	0.21886	0.12636	0.19933
580.48236	0.21778	0.12574	0.19902
580.03503	0.217	0.12546	0.19865
579.43848	0.21591	0.12485	0.19786
578.99103	0.21521	0.12438	0.19773
578.54352	0.21385	0.12368	0.19697
577.94678	0.21321	0.1229	0.19633
577.49915	0.21193	0.12258	0.1962
577.05145	0.21107	0.12215	0.19546
576.45447	0.21063	0.12095	0.19564
576.00665	0.20927	0.12097	0.19487
575.55884	0.20908	0.12012	0.19457
574.96161	0.20759	0.11959	0.19455
574.51367	0.20728	0.11898	0.19405
574.06561	0.20717	0.1186	0.19391
573.4682	0.20566	0.11772	0.19351
573.02008	0.20538	0.11717	0.19366
572.5719	0.20473	0.11636	0.19342
571.97424	0.20392	0.11554	0.19339
571.52594	0.20354	0.11528	0.19327
570.92816	0.2027	0.11445	0.19321
570.47974	0.20204	0.11389	0.19333
570.03125	0.20156	0.1138	0.19325
569.43323	0.20081	0.11291	0.19318
568.98468	0.20068	0.11212	0.19349
568.53607	0.1997	0.11129	0.19335
567.93781	0.19973	0.11064	0.19373
567.48907	0.19882	0.11003	0.19401
567.04028	0.19856	0.10954	0.19403
566.44183	0.19816	0.10914	0.19428
565.99292	0.19786	0.10799	0.19454
565.54395	0.19752	0.10771	0.19481
564.94525	0.19665	0.10681	0.1951
564.49622	0.1965	0.10614	0.19534
564.04712	0.19624	0.1059	0.1954
563.44818	0.19587	0.10481	0.19581
562.99896	0.19573	0.10404	0.19592
562.54968	0.19519	0.10327	0.1963
561.95056	0.19512	0.10268	0.19657
561.50116	0.19488	0.10208	0.19734
561.05176	0.19465	0.10173	0.19739
560.45239	0.1944	0.10132	0.19764
560.00287	0.19435	0.10018	0.19828
559.55328	0.19399	0.09975	0.19846
558.95374	0.19356	0.09908	0.19889
558.50403	0.19369	0.09855	0.19936
558.05426	0.19359	0.09872	0.19985
557.45447	0.1931	0.09754	0.20024
557.00458	0.19319	0.09725	0.20124
556.55469	0.19303	0.09666	0.20169
555.95471	0.19302	0.09635	0.20169
555.50464	0.19277	0.096	0.20248
555.05457	0.19288	0.09537	0.20277
554.45441	0.19283	0.09502	0.20355
554.00421	0.19284	0.09469	0.20382
553.55396	0.19272	0.09404	0.2045
552.95355	0.19287	0.09374	0.20485
552.50317	0.19268	0.09356	0.20566
552.0528	0.19266	0.09335	0.20617
551.45215	0.19279	0.09248	0.20632
551.00165	0.19272	0.09255	0.2069
550.55109	0.193	0.09233	0.20734
549.95026	0.19283	0.09195	0.20771
549.49957	0.19318	0.09159	0.20838
549.04889	0.19326	0.09126	0.20873
548.44781	0.19325	0.0912	0.20931
547.99701	0.19347	0.09091	0.20987
547.54614	0.19346	0.09058	0.21032
546.94489	0.19351	0.09052	0.21083
546.4939	0.19371	0.09009	0.21132
546.04285	0.19402	0.0904	0.21182
545.44135	0.194	0.09007	0.21231
544.99023	0.19412	0.0898	0.21283
544.539	0.19439	0.08986	0.21328
543.93738	0.19486	0.08948	0.21403
543.48602	0.1948	0.0896	0.21439
543.03473	0.19494	0.08925	0.2148
542.4328	0.19534	0.08914	0.21537
541.98138	0.19548	0.08912	0.21561
541.52985	0.19535	0.0891	0.216
540.92773	0.19558	0.08871	0.21623
540.47614	0.19559	0.08887	0.21606
540.02448	0.19616	0.08863	0.21693
539.57275	0.19582	0.0886	0.2173
538.9704	0.19624	0.08857	0.21767
538.51855	0.19645	0.08854	0.21847
538.06671	0.19663	0.08827	0.21874
537.46417	0.19707	0.0883	0.21919
537.01215	0.19698	0.08828	0.21925
536.56012	0.19721	0.08792	0.21964
535.9574	0.1975	0.08813	0.2199
535.50525	0.19759	0.08777	0.22026
535.05304	0.19768	0.088	0.22057
534.45007	0.19793	0.08779	0.22072
533.9978	0.19803	0.08785	0.2212
533.54547	0.19833	0.08771	0.22124
532.94226	0.19852	0.08745	0.22133
532.48981	0.19876	0.08744	0.22166
532.03735	0.19857	0.08738	0.22179
531.43396	0.19885	0.08726	0.22226
530.98138	0.19885	0.08727	0.22243
530.52875	0.19905	0.08729	0.22264
529.92511	0.19956	0.08715	0.22279
529.47241	0.19919	0.08705	0.22307
529.01959	0.19925	0.08709	0.22298
528.56677	0.19909	0.08707	0.22274
527.96289	0.19937	0.08697	0.2229
527.50995	0.19946	0.0869	0.2232
527.05695	0.1994	0.08682	0.22339
526.45288	0.19972	0.0869	0.22346
525.99982	0.19968	0.08664	0.2235
525.54663	0.19955	0.08684	0.22362
524.94238	0.19987	0.08694	0.22372
524.48914	0.1995	0.08689	0.22406
524.03583	0.1998	0.0869	0.22344
523.4314	0.19995	0.08678	0.22362
522.97797	0.19998	0.08694	0.22396
522.52454	0.20018	0.08704	0.22363
522.07104	0.19987	0.08708	0.22389
521.46631	0.19965	0.08709	0.22415
521.0127	0.19981	0.087	0.22395
520.55908	0.19999	0.08726	0.22389
519.95416	0.1999	0.08712	0.22403
519.50037	0.19966	0.08729	0.22395
519.04663	0.1996	0.08743	0.22372
518.44147	0.19948	0.08747	0.22353
517.98755	0.19918	0.0877	0.22352
517.53363	0.1993	0.08771	0.22343
516.92828	0.19917	0.08767	0.22295
516.47424	0.19902	0.08821	0.22317
516.02014	0.1992	0.08834	0.22302
515.56604	0.19889	0.08817	0.22306
514.96045	0.19884	0.08843	0.22276
514.50623	0.19856	0.08864	0.22255
514.05194	0.19863	0.08857	0.22255
513.44617	0.19855	0.08896	0.22208
512.99176	0.1981	0.08895	0.22213
512.53729	0.19812	0.08889	0.22192
511.93134	0.19785	0.08933	0.22171
511.47681	0.19777	0.08912	0.22147
511.02222	0.19771	0.0894	0.22104
510.5676	0.19729	0.08963	0.22102
509.96136	0.19717	0.0895	0.22054
509.50662	0.19725	0.08974	0.22054
509.05185	0.19696	0.08983	0.22041
508.44543	0.19655	0.08991	0.21993
507.99054	0.19653	0.08989	0.21958
507.53561	0.19619	0.09004	0.21934
506.92899	0.19604	0.08994	0.219
506.47397	0.19609	0.0899	0.21873
506.01892	0.19593	0.08975	0.21844
505.56381	0.19545	0.08972	0.21822
504.95691	0.19508	0.08974	0.21752
504.50171	0.1951	0.08945	0.21726
504.04645	0.19465	0.0894	0.21708
503.43939	0.19427	0.08947	0.21647
502.98401	0.1942	0.0892	0.21617
502.52863	0.19395	0.08937	0.2159
502.07318	0.19366	0.08896	0.21541
501.46585	0.19314	0.08863	0.21489
501.01031	0.19309	0.08853	0.2144
500.55472	0.19264	0.08799	0.21435
499.9472	0.19209	0.08779	0.21353
499.49152	0.19217	0.08751	0.21322
499.03577	0.19155	0.08729	0.21249
498.42807	0.19134	0.08668	0.21209
497.97223	0.19093	0.08639	0.21151
497.51636	0.19033	0.08614	0.21062
497.06042	0.18979	0.08566	0.21061
496.45245	0.18946	0.08562	0.20981
495.99643	0.18909	0.08478	0.20924
495.54037	0.18863	0.08436	0.20856
494.93222	0.18829	0.08376	0.20821
494.47607	0.18841	0.0835	0.20792
494.01987	0.18774	0.0833	0.20734
493.5636	0.18721	0.08242	0.20671
492.9552	0.18646	0.08225	0.20594
492.49887	0.186	0.08187	0.20563
492.04245	0.18572	0.08143	0.20521
491.43387	0.18494	0.08102	0.20451
490.97739	0.18469	0.08046	0.20366
490.52084	0.18402	0.08	0.20277
490.06427	0.18344	0.07949	0.20239
489.45544	0.18283	0.07926	0.20175
488.99875	0.1823	0.07907	0.2011
488.54205	0.18187	0.07856	0.20036
487.93301	0.1808	0.07829	0.19948
487.4762	0.18041	0.0779	0.19906
487.01935	0.17989	0.07756	0.19856
486.56244	0.17905	0.07728	0.19779
485.95319	0.17861	0.07694	0.19702
485.49619	0.17772	0.07685	0.19646
485.03915	0.17726	0.07649	0.19597
484.42969	0.17623	0.07627	0.19557
483.97253	0.17578	0.07617	0.19382
483.51538	0.1753	0.07597	0.19353
483.05814	0.17433	0.07548	0.19281
482.44846	0.17383	0.07535	0.19221
481.99112	0.17314	0.07563	0.19132
481.53375	0.17231	0.0753	0.19058
480.92389	0.17157	0.07529	0.1899
480.46643	0.17079	0.07504	0.1894
480.00891	0.17041	0.07482	0.18895
479.55139	0.16939	0.07467	0.18797
478.94125	0.1688	0.07461	0.18744
478.48361	0.16794	0.07445	0.18645
478.02594	0.16742	0.0745	0.18563
477.56821	0.16678	0.07411	0.18512
476.95786	0.16559	0.07425	0.18421
476.50003	0.1652	0.0739	0.18386
476.04218	0.16399	0.07379	0.18326
475.43164	0.16326	0.07352	0.18185
474.97366	0.16284	0.07336	0.1814
474.51569	0.16171	0.07335	0.18045
474.05765	0.16138	0.07305	0.17998
473.44687	0.16011	0.07299	0.17931
472.98874	0.15985	0.07268	0.17838
472.53055	0.15915	0.07236	0.17759
472.07233	0.15796	0.07206	0.17712
471.4613	0.15769	0.072	0.17624
471.00299	0.15679	0.07173	0.17625
470.54465	0.15637	0.0713	0.17506
469.93344	0.15571	0.07093	0.17439
469.47501	0.15482	0.0708	0.1734
469.01651	0.15455	0.07051	0.17307
468.55798	0.15353	0.07021	0.17263
467.94656	0.15304	0.07003	0.17206
467.48795	0.15242	0.06967	0.17148
467.02927	0.1519	0.06941	0.17067
466.57056	0.15119	0.06907	0.17036
465.95889	0.15055	0.06891	0.16925
465.50009	0.15003	0.06861	0.16909
465.04126	0.14909	0.06826	0.16865
464.42941	0.14879	0.0683	0.1681
463.97049	0.14831	0.06796	0.16792
463.51151	0.14772	0.06794	0.16723
463.05249	0.14716	0.06759	0.16666
462.44043	0.14646	0.06728	0.16587
461.98132	0.14596	0.0672	0.16592
461.52216	0.1458	0.06717	0.1653
461.06299	0.145	0.06706	0.16519
460.45065	0.14463	0.06696	0.16464
459.99139	0.14397	0.06731	0.16398
459.53207	0.14362	0.06715	0.16356
459.07272	0.14328	0.06724	0.16365
458.46017	0.14292	0.06723	0.16311
458.00073	0.14272	0.06741	0.16313
457.54123	0.14206	0.0674	0.16285
456.9285	0.1418	0.0676	0.16253
456.46893	0.14165	0.0676	0.1621
456.00931	0.14101	0.06796	0.16204
455.54965	0.14073	0.06803	0.16184
454.93671	0.14043	0.06799	0.16149
454.47693	0.14008	0.06848	0.16122
454.01715	0.13968	0.06846	0.16107
453.55731	0.13937	0.06864	0.16069
452.94415	0.13905	0.06894	0.1607
452.48422	0.13876	0.06889	0.16015
452.02426	0.13836	0.06918	0.16016
451.56424	0.1379	0.06927	0.15993
450.95084	0.13756	0.06936	0.15965
450.49075	0.13736	0.06944	0.15958
450.03061	0.13705	0.06934	0.15919
